O3_O1D_IUPAC04
! O3 + HV = O(1D) + O2
! From IUPAC Subcommittee on Gas Kinetic Data Evaluation
! Data Sheet POx2, updated 2nd October 2001 
! Website: http://www.iupac-kinetic.ch.cam.ac.uk/
Points (These data can be treated as point values)
! Sigma values for wavelength intervals 280-370 nm assigned to a 1 nm grid.! Quantum yields interpolated to match sigma grid! Greg Yarwood, January 2005
FAC=1.0
280.00  4.0200E-18  9.0000E-01
281.00  4.0200E-18  9.0000E-01
282.00  3.0200E-18  9.0000E-01
283.00  2.7700E-18  9.0000E-01
284.00  2.7700E-18  9.0000E-01
285.00  2.7700E-18  9.0000E-01
286.00  1.9860E-18  9.0000E-01
287.00  1.7900E-18  9.0000E-01
288.00  1.7900E-18  9.0000E-01
289.00  1.7900E-18  9.0000E-01
290.00  1.3700E-18  9.0000E-01
291.00  1.0900E-18  9.0000E-01
292.00  1.0900E-18  9.0000E-01
293.00  1.0900E-18  9.0000E-01
294.00  9.0359E-19  9.0000E-01
295.00  6.2400E-19  9.0000E-01
296.00  6.2400E-19  9.0000E-01
297.00  6.2400E-19  9.0000E-01
298.00  6.2400E-19  9.0000E-01
299.00  3.4300E-19  9.0000E-01
300.00  3.4300E-19  9.0000E-01
301.00  3.4300E-19  9.0000E-01
302.00  3.4300E-19  9.0000E-01
303.00  2.6400E-19  9.0000E-01
304.00  1.8500E-19  9.0000E-01
305.00  1.8500E-19  9.0000E-01
306.00  1.8500E-19  8.8400E-01
307.00  1.8500E-19  8.6200E-01
308.00  1.1540E-19  7.9300E-01
309.00  9.8000E-20  6.7100E-01
310.00  9.8000E-20  5.2300E-01
311.00  9.8000E-20  3.9400E-01
312.00  9.8000E-20  3.1000E-01
313.00  5.0000E-20  2.6500E-01
314.00  5.0000E-20  2.4600E-01
315.00  5.0000E-20  2.3900E-01
316.00  5.0000E-20  2.3300E-01
317.00  5.0000E-20  2.2200E-01
318.00  2.4900E-20  2.0600E-01
319.00  2.4900E-20  1.8700E-01
320.00  2.4900E-20  1.6600E-01
321.00  2.4900E-20  1.4600E-01
322.00  2.4900E-20  1.2800E-01
323.00  1.2000E-20  1.1300E-01
324.00  1.2000E-20  1.0100E-01
325.00  1.2000E-20  9.2000E-02
326.00  1.2000E-20  8.6000E-02
327.00  1.2000E-20  8.2000E-02
328.00  6.1700E-21  8.0000E-02
329.00  6.1700E-21  8.0000E-02
330.00  6.1700E-21  8.0000E-02
331.00  6.1700E-21  8.0000E-02
332.00  6.1700E-21  8.0000E-02
333.00  2.7400E-21  8.0000E-02
334.00  2.7400E-21  8.0000E-02
335.00  2.7400E-21  8.0000E-02
336.00  2.7400E-21  8.0000E-02
337.00  2.7400E-21  8.0000E-02
338.00  1.1700E-21  8.0000E-02
339.00  1.1700E-21  8.0000E-02
340.00  1.1700E-21  8.0000E-02
341.00  1.1700E-21  8.0000E-02
342.00  1.1700E-21  8.0000E-02
343.00  5.9000E-22  8.0000E-02
344.00  5.9000E-22  8.0000E-02
345.00  5.9000E-22  8.0000E-02
346.00  5.9000E-22  8.0000E-02
347.00  5.9000E-22  8.0000E-02
348.00  2.7000E-22  8.0000E-02
349.00  2.7000E-22  8.0000E-02
350.00  2.7000E-22  8.0000E-02
351.00  2.7000E-22  8.0000E-02
352.00  2.7000E-22  8.0000E-02
353.00  1.1000E-22  8.0000E-02
354.00  1.1000E-22  8.0000E-02
355.00  1.1000E-22  8.0000E-02
356.00  1.1000E-22  8.0000E-02
357.00  1.1000E-22  8.0000E-02
358.00  5.0000E-23  8.0000E-02
359.00  5.0000E-23  8.0000E-02
360.00  5.0000E-23  8.0000E-02
361.00  5.0000E-23  8.0000E-02
362.00  5.0000E-23  8.0000E-02
363.00  0.0000E+00  8.0000E-02